NO3 + HV = NO + O2
! From NASA (2006), for 298 K.
! Quantum yields for wavelengths above 640 nm estimated by linear extrapolation.
!
0.585 3.100E-18 0.000
0.586 3.550E-18 0.015
0.587 4.460E-18 0.039
0.588 5.400E-18 0.097
0.589 6.560E-18 0.128
0.590 6.380E-18 0.190
0.591 5.830E-18 0.220
0.592 5.480E-18 0.249
0.593 4.900E-18 0.303
0.594 4.490E-18 0.328
0.595 4.600E-18 0.359
0.596 4.950E-18 0.357
0.597 4.670E-18 0.318
0.598 3.930E-18 0.323
0.599 3.330E-18 0.314
0.600 2.960E-18 0.291
0.601 3.070E-18 0.296
0.602 3.550E-18 0.291
0.603 4.080E-18 0.283
0.604 4.680E-18 0.280
0.605 4.670E-18 0.264
0.606 3.550E-18 0.271
0.607 2.580E-18 0.268
0.608 1.980E-18 0.250
0.609 1.840E-18 0.248
0.610 1.890E-18 0.236
0.611 2.040E-18 0.205
0.612 2.390E-18 0.200
0.613 2.820E-18 0.190
0.614 2.730E-18 0.166
0.615 2.420E-18 0.166
0.616 2.240E-18 0.160
0.617 2.260E-18 0.141
0.618 2.560E-18 0.143
0.619 2.740E-18 0.139
0.620 3.500E-18 0.131
0.621 5.620E-18 0.127
0.622 1.090E-17 0.122
0.623 1.578E-17 0.117
0.624 1.291E-17 0.106
0.625 8.980E-18 0.099
0.626 7.830E-18 0.092
0.627 8.060E-18 0.085
0.628 7.890E-18 0.074
0.629 7.480E-18 0.070
0.630 7.240E-18 0.065
0.631 5.180E-18 0.058
0.632 3.500E-18 0.051
0.633 2.330E-18 0.047
0.634 1.760E-18 0.043
0.635 1.540E-18 0.037
0.636 1.810E-18 0.032
0.637 2.220E-18 0.029
0.638 2.170E-18 0.027
0.639 1.690E-18 0.024
0.640 1.320E-18 0.020
0.641 1.080E-18 0.017
0.642 9.900E-19 0.014
0.643 1.040E-18 0.011
0.644 1.020E-18 0.008
0.645 9.200E-19 0.004
0.646 8.000E-19 0.001
0.647 7.500E-19 0.000
