NO3 + HV = NO2 + O
! From NASA (2006), for 298 K.
! Quantum yields for wavelengths above 640 nm estimated by linear extrapolation.
!
0.403 2.000E-20 1.000
0.404 0.000E+00 1.000
0.405 3.000E-20 1.000
0.406 2.000E-20 1.000
0.407 1.000E-20 1.000
0.408 3.000E-20 1.000
0.409 0.000E+00 1.000
0.410 1.000E-20 1.000
0.411 2.000E-20 1.000
0.412 5.000E-20 1.000
0.413 5.000E-20 1.000
0.414 2.000E-20 1.000
0.415 6.000E-20 1.000
0.416 7.000E-20 1.000
0.417 8.000E-20 1.000
0.418 5.000E-20 1.000
0.419 9.000E-20 1.000
0.420 9.000E-20 1.000
0.421 9.000E-20 1.000
0.422 1.000E-19 1.000
0.423 1.200E-19 1.000
0.424 1.000E-19 1.000
0.425 8.000E-20 1.000
0.426 1.500E-19 1.000
0.427 1.500E-19 1.000
0.428 1.300E-19 1.000
0.429 1.200E-19 1.000
0.430 1.800E-19 1.000
0.431 1.400E-19 1.000
0.432 1.600E-19 1.000
0.433 1.900E-19 1.000
0.434 2.000E-19 1.000
0.435 1.700E-19 1.000
0.436 1.600E-19 1.000
0.437 2.000E-19 1.000
0.438 2.300E-19 1.000
0.439 2.200E-19 1.000
0.440 2.100E-19 1.000
0.441 2.000E-19 1.000
0.442 2.300E-19 1.000
0.443 1.900E-19 1.000
0.444 2.100E-19 1.000
0.445 2.200E-19 1.000
0.446 2.600E-19 1.000
0.447 3.100E-19 1.000
0.448 2.600E-19 1.000
0.449 3.000E-19 1.000
0.450 3.100E-19 1.000
0.451 3.300E-19 1.000
0.452 3.600E-19 1.000
0.453 3.400E-19 1.000
0.454 3.800E-19 1.000
0.455 3.800E-19 1.000
0.456 3.800E-19 1.000
0.457 4.200E-19 1.000
0.458 3.900E-19 1.000
0.459 4.500E-19 1.000
0.460 4.200E-19 1.000
0.461 4.100E-19 1.000
0.462 4.200E-19 1.000
0.463 4.300E-19 1.000
0.464 5.100E-19 1.000
0.465 5.400E-19 1.000
0.466 5.800E-19 1.000
0.467 6.100E-19 1.000
0.468 6.000E-19 1.000
0.469 6.200E-19 1.000
0.470 6.300E-19 1.000
0.471 6.600E-19 1.000
0.472 6.900E-19 1.000
0.473 6.600E-19 1.000
0.474 6.600E-19 1.000
0.475 7.300E-19 1.000
0.476 8.400E-19 1.000
0.477 8.300E-19 1.000
0.478 7.800E-19 1.000
0.479 7.800E-19 1.000
0.480 7.500E-19 1.000
0.481 7.600E-19 1.000
0.482 7.600E-19 1.000
0.483 7.700E-19 1.000
0.484 8.300E-19 1.000
0.485 8.800E-19 1.000
0.486 9.800E-19 1.000
0.487 9.900E-19 1.000
0.488 1.020E-18 1.000
0.489 1.030E-18 1.000
0.490 1.110E-18 1.000
0.491 1.060E-18 1.000
0.492 1.070E-18 1.000
0.493 1.090E-18 1.000
0.494 1.090E-18 1.000
0.495 1.130E-18 1.000
0.496 1.290E-18 1.000
0.497 1.300E-18 1.000
0.498 1.280E-18 1.000
0.499 1.250E-18 1.000
0.500 1.210E-18 1.000
0.501 1.180E-18 1.000
0.502 1.180E-18 1.000
0.503 1.190E-18 1.000
0.504 1.350E-18 1.000
0.505 1.370E-18 1.000
0.506 1.430E-18 1.000
0.507 1.370E-18 1.000
0.508 1.360E-18 1.000
0.509 1.450E-18 1.000
0.510 1.620E-18 1.000
0.511 1.860E-18 1.000
0.512 1.890E-18 1.000
0.513 1.720E-18 1.000
0.514 1.690E-18 1.000
0.515 1.700E-18 1.000
0.516 1.670E-18 1.000
0.517 1.600E-18 1.000
0.518 1.540E-18 1.000
0.519 1.650E-18 1.000
0.520 1.800E-18 1.000
0.521 1.960E-18 1.000
0.522 2.060E-18 1.000
0.523 1.890E-18 1.000
0.524 1.760E-18 1.000
0.525 1.690E-18 1.000
0.526 1.750E-18 1.000
0.527 1.930E-18 1.000
0.528 2.250E-18 1.000
0.529 2.570E-18 1.000
0.530 2.390E-18 1.000
0.531 2.240E-18 1.000
0.532 2.160E-18 1.000
0.533 2.090E-18 1.000
0.534 2.180E-18 1.000
0.535 2.470E-18 1.000
0.536 2.750E-18 1.000
0.537 2.760E-18 1.000
0.538 2.510E-18 1.000
0.539 2.190E-18 1.000
0.540 2.250E-18 1.000
0.541 2.190E-18 1.000
0.542 2.010E-18 1.000
0.543 1.800E-18 1.000
0.544 1.830E-18 1.000
0.545 2.100E-18 1.000
0.546 2.600E-18 1.000
0.547 3.120E-18 1.000
0.548 3.200E-18 1.000
0.549 2.900E-18 1.000
0.550 2.650E-18 1.000
0.551 2.610E-18 1.000
0.552 2.640E-18 1.000
0.553 2.710E-18 1.000
0.554 2.980E-18 1.000
0.555 3.340E-18 1.000
0.556 3.490E-18 1.000
0.557 3.520E-18 1.000
0.558 3.760E-18 1.000
0.559 3.990E-18 1.000
0.560 3.550E-18 1.000
0.561 3.200E-18 1.000
0.562 3.110E-18 1.000
0.563 3.000E-18 1.000
0.564 2.910E-18 1.000
0.565 2.920E-18 1.000
0.566 3.050E-18 1.000
0.567 3.010E-18 1.000
0.568 3.050E-18 1.000
0.569 3.100E-18 1.000
0.570 2.990E-18 1.000
0.571 2.960E-18 1.000
0.572 2.940E-18 1.000
0.573 2.980E-18 1.000
0.574 3.060E-18 1.000
0.575 3.300E-18 1.000
0.576 3.500E-18 1.000
0.577 3.620E-18 1.000
0.578 3.540E-18 1.000
0.579 3.470E-18 1.000
0.580 3.580E-18 1.000
0.581 3.800E-18 1.000
0.582 3.510E-18 1.000
0.583 3.140E-18 1.000
0.584 3.020E-18 1.000
0.585 3.100E-18 0.983
0.586 3.550E-18 0.967
0.587 4.460E-18 0.943
0.588 5.400E-18 0.885
0.589 6.560E-18 0.854
0.590 6.380E-18 0.793
0.591 5.830E-18 0.763
0.592 5.480E-18 0.734
0.593 4.900E-18 0.680
0.594 4.490E-18 0.654
0.595 4.600E-18 0.608
0.596 4.950E-18 0.587
0.597 4.670E-18 0.567
0.598 3.930E-18 0.531
0.599 3.330E-18 0.509
0.600 2.960E-18 0.472
0.601 3.070E-18 0.438
0.602 3.550E-18 0.415
0.603 4.080E-18 0.371
0.604 4.680E-18 0.351
0.605 4.670E-18 0.323
0.606 3.550E-18 0.296
0.607 2.580E-18 0.280
0.608 1.980E-18 0.259
0.609 1.840E-18 0.238
0.610 1.890E-18 0.226
0.611 2.040E-18 0.210
0.612 2.390E-18 0.193
0.613 2.820E-18 0.181
0.614 2.730E-18 0.166
0.615 2.420E-18 0.147
0.616 2.240E-18 0.137
0.617 2.260E-18 0.124
0.618 2.560E-18 0.108
0.619 2.740E-18 0.099
0.620 3.500E-18 0.090
0.621 5.620E-18 0.077
0.622 1.090E-17 0.070
0.623 1.578E-17 0.064
0.624 1.291E-17 0.055
0.625 8.980E-18 0.049
0.626 7.830E-18 0.044
0.627 8.060E-18 0.039
0.628 7.890E-18 0.034
0.629 7.480E-18 0.029
0.630 7.240E-18 0.026
0.631 5.180E-18 0.024
0.632 3.500E-18 0.020
0.633 2.330E-18 0.018
0.634 1.760E-18 0.016
0.635 1.540E-18 0.015
0.636 1.810E-18 0.012
0.637 2.220E-18 0.011
0.638 2.170E-18 0.010
0.639 1.690E-18 0.009
0.640 1.320E-18 0.007
0.641 1.080E-18 0.006
0.642 9.900E-19 0.004
0.643 1.040E-18 0.003
0.644 1.020E-18 0.002
0.645 9.200E-19 0.000
